Day fraction since midnight on 	photometer (mg/L)	photometer (volts)	Source pressure (Pa)
0.5613029621	2.7904744148	3.5066318512	116222.4375000000
0.5613608445	2.7902758121	3.5067300797	116240.3750000000
0.5614186902	2.7900943756	3.5068197250	116223.8046875000
0.5614765472	2.7901279926	3.5068030357	116213.6406250000
0.5615344308	2.8579599857	3.4733967781	116189.1171875000
start
0.5615924182	3.2252686024	3.2964856625	116217.0546875000
0.5616502816	2.8199946880	3.4920654297	116223.5703125000
0.5617080381	2.7917048931	3.5060238838	116205.9843750000
0.5617659018	2.7909245491	3.5064094067	116204.0468750000
0.5618238757	3.8854849339	2.9947867393	116175.7890625000
0.5618817549	6.5432667732	1.9673796892	116190.4453125000
0.5619396298	3.5762007236	3.1335778236	116189.3125000000
0.5619974836	2.7917888165	3.5059823990	116182.7734375000
0.5620553563	3.0352985859	3.3871505260	116183.2656250000
0.5621132216	2.8140580654	3.4949913025	116194.7578125000
0.5621709857	3.2692601681	3.2757411003	116183.1171875000
0.5622289722	6.2952866554	2.0518326759	116166.5390625000
0.5622868249	15.0309238434	0.0620059930	116166.8281250000
0.5623447014	14.8416328430	0.0889089704	116160.6093750000
0.5624025730	20.3302230835	-0.5133423209	116159.2031250000
0.5624604412	22.8046703339	-0.6919159889	116161.3593750000
0.5625183010	21.3256511688	-0.5906682014	116156.9140625000
0.5625761799	21.7332439423	-0.6201208830	116151.1250000000
0.5626340565	24.3250274658	-0.7811548710	116145.1015625000
0.5626919170	24.7279090881	-0.8025603890	116147.0625000000
0.5627497788	25.9715461731	-0.8633207679	116139.3515625000
0.5628076469	27.0360584259	-0.9095134139	116124.2734375000
0.5628655219	28.0005149841	-0.9472236633	116117.7343750000
0.5629234027	28.8054828644	-0.9759631157	116126.5859375000
0.5629812642	29.3807735443	-0.9950957298	116117.9531250000
0.5630391330	30.3340167999	-1.0244144201	116107.7656250000
0.5630969980	31.1341800690	-1.0469050407	116102.0234375000
0.5631548678	30.9448242188	-1.0417482853	116108.7578125000
0.5632127246	30.2175922394	-1.0209853649	116097.4062500000
0.5632706043	31.6661949158	-1.0608686209	116097.9062500000
0.5633284789	33.1327438354	-1.0956380367	116096.1328125000
0.5633863445	33.9299774170	-1.1124554873	116106.3984375000
0.5634442012	32.9566383362	-1.0917339325	116097.6484375000
0.5635020844	29.5242462158	-0.9996938705	116092.8125000000
0.5635599553	25.5248050690	-0.8423810601	116080.9218750000
0.5636178272	22.4033908844	-0.6659466624	116075.1406250000
0.5636756884	20.2558937073	-0.5072451830	116059.3437500000
0.5637335620	18.8429889679	-0.3820492029	116046.1093750000
0.5637914180	17.9423446655	-0.2922334969	116054.7578125000
0.5638492873	17.3433456421	-0.2277347744	116042.2187500000
0.5639071643	16.9504756927	-0.1832270622	116046.1562500000
0.5639650302	16.6636753082	-0.1495841891	116055.0156250000
0.5640228985	16.4682540894	-0.1260866076	116047.6796875000
0.5640807766	16.3149070740	-0.1073152572	116035.6718750000
0.5641386271	16.1920509338	-0.0920619741	116055.0703125000
0.5641965001	16.1138095856	-0.0822469816	116038.0859375000
0.5642543625	16.0377368927	-0.0726283640	116039.6875000000
0.5643122322	15.9815149307	-0.0654711947	116056.6562500000
0.5643701221	15.9363899231	-0.0596967153	116049.5546875000
0.5644279712	15.9013862610	-0.0551990606	116056.3203125000
0.5644858491	15.8765497208	-0.0519978367	116065.6796875000
0.5645437090	15.8429622650	-0.0476559140	116078.5312500000
0.5646015925	15.8127231598	-0.0437339693	116071.6484375000
0.5646594541	15.7821054459	-0.0397504158	116085.6171875000
0.5647173174	15.8490743637	-0.0484471172	116098.7812500000
0.5647751919	14.3420457840	0.1624738425	116088.9609375000
0.5648330567	10.9188623428	0.7820186019	116089.2734375000
0.5648909234	10.4112386703	0.8938552141	116131.0078125000
0.5649488013	10.3007688522	0.9189745784	116118.6953125000
0.5650066648	10.1650352478	0.9502310753	116114.7890625000
0.5650645377	10.1952428818	0.9432372451	116117.5390625000
0.5651224037	10.1664648056	0.9498994946	116123.0156250000
0.5651802778	10.1594038010	0.9515373111	116130.2968750000
0.5652381404	10.1632204056	0.9506520033	116135.1953125000
0.5652960042	10.1609277725	0.9511837363	116124.3203125000
0.5653538764	10.1622953415	0.9508664608	116158.2734375000
0.5654117524	10.1568717957	0.9521248937	116151.1250000000
0.5654697273	10.1614208221	0.9510693550	116170.6406250000
0.5655275961	10.1575632095	0.9519642591	116168.3437500000
0.5655853471	10.1592779160	0.9515664577	116165.5937500000
0.5656432265	10.1564292908	0.9522275925	116165.0703125000
0.5657012246	10.1618680954	0.9509655237	116190.2265625000
0.5657589895	10.1755380630	0.9477969408	116184.4921875000
0.5658168639	10.2438354492	0.9320320487	116198.8593750000
0.5658747358	10.3057489395	0.9178358912	116184.3984375000
0.5659325966	10.2335367203	0.9344021678	116205.6093750000
0.5659905013	10.6907653809	0.8315514922	116200.7890625000
0.5660483950	10.2698411942	0.9260581732	116209.8046875000
0.5661062474	10.9666109085	0.7717956305	116212.3437500000
0.5661641140	14.9764995575	0.0696875304	116209.1093750000
0.5662219810	12.0668106079	0.5495957136	116223.9140625000
0.5662798426	14.8338594437	0.0900248811	116239.1093750000
0.5663377016	13.8698139191	0.2355645150	116230.7968750000
0.5663955748	14.1586933136	0.1904327422	116243.6875000000
0.5664534617	14.1073398590	0.1983583272	116250.4375000000
