Day fraction since midnight on 	photometer (mg/L)	photometer (volts)	Source pressure (Pa)
0.6196078464	2.7772836685	3.5131549835	104142.7500000000
0.6196657398	2.7773437500	3.5131251812	104142.7500000000
0.6197236445	2.7773592472	3.5131175518	104142.7500000000
start
0.6197815274	2.7773804665	3.5131070614	104142.7500000000
0.6198394220	2.7774343491	3.5130803585	104142.7500000000
0.6198972958	2.7773928642	3.5131008625	104142.7500000000
0.6199551604	2.7774465084	3.5130743980	104142.7500000000
0.6200130311	2.7779104710	3.5128448009	104142.7500000000
0.6200708436	2.7787959576	3.5124065876	104142.7500000000
0.6201287095	2.7789704800	3.5123202801	104142.7500000000
0.6201865445	2.7798414230	3.5118894577	104142.7500000000
0.6202444563	2.7818627357	3.5108895302	104142.7500000000
0.6203023059	2.7819869518	3.5108280182	104142.7500000000
0.6203601795	2.7821750641	3.5107350349	104142.7500000000
0.6204180618	2.7826006413	3.5105245113	104142.7500000000
0.6204759691	2.7829599380	3.5103468895	104142.7500000000
0.6205337890	2.7831330299	3.5102612972	104142.7500000000
0.6205916607	2.7835392952	3.5100603104	104142.7500000000
0.6206496037	2.7848834991	3.5093955994	104142.7500000000
0.6207074788	2.7853672504	3.5091564655	104142.7500000000
0.6207653134	2.7863392830	3.5086758137	104142.7500000000
0.6208231734	2.7862694263	3.5087103844	104142.7500000000
0.6208810484	2.7868471146	3.5084247589	104142.7500000000
0.6209389312	2.7873520851	3.5081751347	104142.7500000000
0.6209967997	2.7882535458	3.5077295303	104142.7500000000
0.6210546669	2.7881743908	3.5077686310	104142.7500000000
0.6211125044	2.7875657082	3.5080695152	104142.7500000000
0.6211703578	2.7872097492	3.5082454681	104142.7500000000
0.6212282419	2.7872512341	3.5082249641	104142.7500000000
0.6212861084	2.7875151634	3.5080945492	104142.7500000000
0.6213440518	2.7882862091	3.5077133179	104142.7500000000
0.6214018606	2.7886939049	3.5075118542	104142.7500000000
0.6214597432	2.7891068459	3.5073077679	104142.7500000000
0.6215176135	2.7917544842	3.5059993267	104142.7500000000
0.6215755449	2.7914278507	3.5061607361	104142.7500000000
0.6216334020	2.7901358604	3.5067992210	104142.7500000000
0.6216911672	2.7897377014	3.5069959164	104142.7500000000
0.6217490564	2.7894303799	3.5071477890	104142.7500000000
0.6218070014	2.7897512913	3.5069892406	104142.7500000000
0.6218648406	2.7901546955	3.5067899227	104142.7500000000
0.6219227002	2.7902288437	3.5067532063	104142.7500000000
0.6219805450	2.7910857201	3.5063297749	104142.7500000000
0.6220385005	2.7910366058	3.5063540936	104142.7500000000
0.6220963520	2.7907416821	3.5064997673	104142.7500000000
0.6221541605	2.7910692692	3.5063378811	104142.7500000000
0.6222120908	2.7911181450	3.5063138008	104142.7500000000
0.6222699510	2.7908623219	3.5064401627	104142.7500000000
0.6223278127	2.7906255722	3.5065572262	104142.7500000000
0.6223856626	2.7911059856	3.5063197613	104142.7500000000
0.6224435941	2.7911558151	3.5062952042	104142.7500000000
0.6225014425	2.7911214828	3.5063121319	104142.7500000000
0.6225592892	2.7910730839	3.5063359737	104142.7500000000
0.6226171868	2.7910523415	3.5063462257	104142.7500000000
0.6226750496	2.7911403179	3.5063028336	104142.7500000000
0.6227328842	2.7914137840	3.5061676502	104142.7500000000
0.6227907536	2.7915272713	3.5061116219	104142.7500000000
0.6228486513	2.7918252945	3.5059642792	104142.7500000000
0.6229064941	2.7918260098	3.5059640408	104142.7500000000
0.6229643560	2.7916979790	3.5060272217	104142.7500000000
0.6230222176	2.7920207977	3.5058677197	104142.7500000000
0.6230800894	2.7918345928	3.5059597492	104142.7500000000
0.6231380278	2.7921926975	3.5057828426	104142.7500000000
0.6231958915	2.7919816971	3.5058870316	104142.7500000000
0.6232537062	2.7917022705	3.5060250759	104142.7500000000
0.6233116231	2.7916638851	3.5060441494	104142.7500000000
0.6233694305	2.7919261456	3.5059144497	104142.7500000000
0.6234272509	2.7919223309	3.5059163570	104142.7500000000
0.6234851629	2.7924184799	3.5056712627	104142.7500000000
0.6235430536	2.7924835682	3.5056390762	104142.7500000000
0.6236009390	2.7925984859	3.5055823326	104142.7500000000
0.6236587873	2.7926154137	3.5055739880	104142.7500000000
0.6237167345	2.7926993370	3.5055325031	104142.7500000000
0.6237745714	2.7927277088	3.5055184364	104142.7500000000
0.6238324144	2.7927682400	3.5054984093	104142.7500000000
0.6238902597	2.7928309441	3.5054674149	104142.7500000000
0.6239481443	2.7929551601	3.5054061413	104142.7500000000
0.6240060006	2.7930085659	3.5053796768	104142.7500000000
0.6240638397	2.7929565907	3.5054054260	104142.7500000000
0.6241217477	2.7932026386	3.5052838326	104142.7500000000
0.6241796611	2.7932744026	3.5052483082	104142.7500000000
0.6242375219	2.7934327126	3.5051701069	104142.7500000000
0.6242953771	2.7935740948	3.5051002502	104142.7500000000
0.6243532558	2.7935104370	3.5051317215	104142.7500000000
0.6244110633	2.7935504913	3.5051119328	104142.7500000000
0.6244690553	2.7934467793	3.5051631927	104142.7500000000
0.6245268114	2.7934970856	3.5051383972	104142.7500000000
0.6245847154	2.7935109138	3.5051314831	104142.7500000000
0.6246426348	2.7935867310	3.5050940514	104142.7500000000
0.6247005189	2.7936933041	3.5050413609	104142.7500000000
0.6247583579	2.7936923504	3.5050418377	104142.7500000000
0.6248162104	2.7936804295	3.5050477982	104142.7500000000
0.6248740667	2.7936832905	3.5050463676	104142.7500000000
0.6249319741	2.7937633991	3.5050067902	104142.7500000000
0.6249897948	2.7937324047	3.5050220490	104142.7500000000
0.6250476508	2.7938096523	3.5049839020	104142.7500000000
0.6251055206	2.7937695980	3.5050036907	104142.7500000000
0.6251633844	2.7938241959	3.5049767494	104142.7500000000
0.6252213020	2.7940385342	3.5048708916	104142.7500000000
0.6252791646	2.7938733101	3.5049524307	104142.7500000000
0.6253370224	2.7940089703	3.5048854351	104142.7500000000
0.6253948861	2.7945046425	3.5046405792	104142.7500000000
0.6254527485	2.7943725586	3.5047059059	104142.7500000000
0.6255106509	2.7939138412	3.5049324036	104142.7500000000
0.6255685004	2.7937977314	3.5049898624	104142.7500000000
0.6256263940	2.7937808037	3.5049982071	104142.7500000000
0.6256842958	2.7937967777	3.5049903393	104142.7500000000
